 Ni Density=2.2 Thickness=10. microns
 Photon Energy (eV), Transmission
    1000.0      0.10670E-09
    1090.0      0.19405E-08
    1180.0      0.63722E-07
    1270.0      0.94578E-06
    1360.0      0.80572E-05
    1450.0      0.44311E-04
    1540.0      0.18013E-03
    1630.0      0.57366E-03
    1720.0      0.14869E-02
    1810.0      0.33140E-02
    1900.0      0.64979E-02
    1990.0      0.11466E-01
    2080.0      0.18590E-01
    2170.0      0.28208E-01
    2260.0      0.40428E-01
    2350.0      0.55251E-01
    2440.0      0.72545E-01
    2530.0      0.92094E-01
    2620.0      0.11362    
    2710.0      0.13680    
    2800.0      0.16130    
    2890.0      0.18678    
    2980.0      0.21294    
    3070.0      0.23949    
    3160.0      0.26619    
    3250.0      0.29281    
    3340.0      0.31917    
    3430.0      0.34513    
    3520.0      0.37055    
    3610.0      0.39534    
    3700.0      0.41944    
    3790.0      0.44278    
    3880.0      0.46532    
    3970.0      0.48705    
    4060.0      0.50795    
    4150.0      0.52803    
    4240.0      0.54728    
    4330.0      0.56573    
    4420.0      0.58338    
    4510.0      0.60027    
    4600.0      0.61640    
    4690.0      0.63182    
    4780.0      0.64654    
    4870.0      0.66058    
    4960.0      0.67399    
    5050.0      0.68679    
    5140.0      0.69899    
    5230.0      0.71064    
    5320.0      0.72176    
    5410.0      0.73237    
    5500.0      0.74250    
    5590.0      0.75216    
    5680.0      0.76139    
    5770.0      0.77020    
    5860.0      0.77861    
    5950.0      0.78666    
    6040.0      0.79434    
    6130.0      0.80169    
    6220.0      0.80871    
    6310.0      0.81543    
    6400.0      0.82186    
    6490.0      0.82802    
    6580.0      0.83391    
    6670.0      0.83955    
    6760.0      0.84495    
    6850.0      0.85014    
    6940.0      0.85510    
    7030.0      0.85987    
    7120.0      0.86444    
    7210.0      0.86882    
    7300.0      0.87303    
    7390.0      0.87707    
    7480.0      0.88096    
    7570.0      0.88469    
    7660.0      0.88828    
    7750.0      0.89173    
    7840.0      0.89504    
    7930.0      0.89824    
    8020.0      0.90131    
    8110.0      0.90427    
    8200.0      0.90712    
    8290.0      0.90986    
    8380.0      0.48832    
    8470.0      0.49749    
    8560.0      0.50650    
    8650.0      0.51537    
    8740.0      0.52409    
    8830.0      0.53268    
    8920.0      0.54113    
    9010.0      0.54943    
    9100.0      0.55761    
    9190.0      0.56564    
    9280.0      0.57353    
    9370.0      0.58128    
    9460.0      0.58889    
    9550.0      0.59636    
    9640.0      0.60369    
    9730.0      0.61089    
    9820.0      0.61796    
    9910.0      0.62487    
    10000.      0.63168    
